# nu(cm-1)        I      fit    const
       650  1.51572  1.51648  1.00000
       651  1.51537  1.51622  1.00000
       652  1.51475  1.51543  1.00000
       653  1.51525  1.51455  1.00000
       654  1.51568  1.51423  1.00000
       655  1.51146  1.51409  1.00000
       656  1.50726  1.51364  1.00000
       657  1.50930  1.51286  1.00000
       658  1.51059  1.51237  1.00000
       659  1.50979  1.51188  1.00000
       660  1.50951  1.51100  1.00000
       661  1.51035  1.50978  1.00000
       662  1.51105  1.50911  1.00000
       663  1.51051  1.50881  1.00000
       664  1.50944  1.50773  1.00000
       665  1.50819  1.50692  1.00000
       666  1.50699  1.50663  1.00000
       667  1.50606  1.50593  1.00000
       668  1.50460  1.50513  1.00000
       669  1.50314  1.50460  1.00000
       670  1.50387  1.50431  1.00000
       671  1.50527  1.50381  1.00000
       672  1.50525  1.50310  1.00000
       673  1.50288  1.50251  1.00000
       674  1.49893  1.50211  1.00000
       675  1.49673  1.50181  1.00000
       676  1.49909  1.50141  1.00000
       677  1.49974  1.50066  1.00000
       678  1.49831  1.50035  1.00000
       679  1.49908  1.50074  1.00000
       680  1.49942  1.50017  1.00000
       681  1.49854  1.49951  1.00000
       682  1.49749  1.49961  1.00000
       683  1.49603  1.49937  1.00000
       684  1.49562  1.49877  1.00000
       685  1.49667  1.49819  1.00000
       686  1.49543  1.49788  1.00000
       687  1.49442  1.49780  1.00000
       688  1.49580  1.49772  1.00000
       689  1.49494  1.49744  1.00000
       690  1.49316  1.49709  1.00000
       691  1.49316  1.49678  1.00000
       692  1.49470  1.49652  1.00000
       693  1.49529  1.49631  1.00000
       694  1.49422  1.49597  1.00000
       695  1.49364  1.49536  1.00000
       696  1.49343  1.49500  1.00000
       697  1.49384  1.49486  1.00000
       698  1.49531  1.49459  1.00000
       699  1.49395  1.49421  1.00000
       700  1.49154  1.49369  1.00000
       701  1.49314  1.49301  1.00000
       702  1.49252  1.49238  1.00000
       703  1.49034  1.49184  1.00000
       704  1.49130  1.49151  1.00000
       705  1.48999  1.49166  1.00000
       706  1.48784  1.49158  1.00000
       707  1.48856  1.49092  1.00000
       708  1.48725  1.49044  1.00000
       709  1.48528  1.48988  1.00000
       710  1.48540  1.48911  1.00000
       711  1.48464  1.48855  1.00000
       712  1.48456  1.48793  1.00000
       713  1.48678  1.48708  1.00000
       714  1.48841  1.48619  1.00000
       715  1.48532  1.48557  1.00000
       716  1.48015  1.48516  1.00000
       717  1.48223  1.48464  1.00000
       718  1.48268  1.48412  1.00000
       719  1.47853  1.48343  1.00000
       720  1.47878  1.48242  1.00000
       721  1.47975  1.48144  1.00000
       722  1.47895  1.48073  1.00000
       723  1.47851  1.48017  1.00000
       724  1.47850  1.47932  1.00000
       725  1.47724  1.47841  1.00000
       726  1.47413  1.47780  1.00000
       727  1.47439  1.47731  1.00000
       728  1.47640  1.47673  1.00000
       729  1.47559  1.47608  1.00000
       730  1.47426  1.47571  1.00000
       731  1.47423  1.47535  1.00000
       732  1.47445  1.47472  1.00000
       733  1.47124  1.47397  1.00000
       734  1.47088  1.47345  1.00000
       735  1.47510  1.47300  1.00000
       736  1.47211  1.47203  1.00000
       737  1.46959  1.47086  1.00000
       738  1.47232  1.46994  1.00000
       739  1.47111  1.46942  1.00000
       740  1.46970  1.46895  1.00000
       741  1.46984  1.46839  1.00000
       742  1.46741  1.46776  1.00000
       743  1.46760  1.46691  1.00000
       744  1.46885  1.46613  1.00000
       745  1.46462  1.46572  1.00000
       746  1.46291  1.46530  1.00000
       747  1.46462  1.46486  1.00000
       748  1.46460  1.46456  1.00000
       749  1.46498  1.46455  1.00000
       750  1.46519  1.46447  1.00000
       751  1.46399  1.46424  1.00000
       752  1.46457  1.46424  1.00000
       753  1.46465  1.46407  1.00000
       754  1.46230  1.46358  1.00000
       755  1.46219  1.46326  1.00000
       756  1.46308  1.46280  1.00000
       757  1.46220  1.46216  1.00000
       758  1.45988  1.46172  1.00000
       759  1.45987  1.46141  1.00000
       760  1.46188  1.46083  1.00000
       761  1.46042  1.45978  1.00000
       762  1.45813  1.45886  1.00000
       763  1.45825  1.45821  1.00000
       764  1.46029  1.45762  1.00000
       765  1.45842  1.45706  1.00000
       766  1.45513  1.45650  1.00000
       767  1.45710  1.45592  1.00000
       768  1.45751  1.45532  1.00000
       769  1.45538  1.45464  1.00000
       770  1.45441  1.45385  1.00000
       771  1.45421  1.45308  1.00000
       772  1.45436  1.45244  1.00000
       773  1.45447  1.45201  1.00000
       774  1.45362  1.45179  1.00000
       775  1.45255  1.45140  1.00000
       776  1.45163  1.45079  1.00000
       777  1.44968  1.45020  1.00000
       778  1.44908  1.44966  1.00000
       779  1.45042  1.44899  1.00000
       780  1.45053  1.44807  1.00000
       781  1.45005  1.44728  1.00000
       782  1.45015  1.44654  1.00000
       783  1.45068  1.44548  1.00000
       784  1.44965  1.44428  1.00000
       785  1.44760  1.44307  1.00000
       786  1.44678  1.44181  1.00000
       787  1.44628  1.44030  1.00000
       788  1.44519  1.43880  1.00000
       789  1.44350  1.43767  1.00000
       790  1.44211  1.43685  1.00000
       791  1.43956  1.43581  1.00000
       792  1.43617  1.43450  1.00000
       793  1.43791  1.43358  1.00000
       794  1.44008  1.43276  1.00000
       795  1.43805  1.43172  1.00000
       796  1.43626  1.43056  1.00000
       797  1.43585  1.42969  1.00000
       798  1.43602  1.42894  1.00000
       799  1.43573  1.42794  1.00000
       800  1.43491  1.42724  1.00000
       801  1.43412  1.42673  1.00000
       802  1.43380  1.42600  1.00000
       803  1.43238  1.42526  1.00000
       804  1.43049  1.42464  1.00000
       805  1.42946  1.42408  1.00000
       806  1.42576  1.42331  1.00000
       807  1.42402  1.42239  1.00000
       808  1.42748  1.42153  1.00000
       809  1.42174  1.42080  1.00000
       810  1.41691  1.41973  1.00000
       811  1.42327  1.41829  1.00000
       812  1.42226  1.41708  1.00000
       813  1.41797  1.41613  1.00000
       814  1.41857  1.41532  1.00000
       815  1.41918  1.41454  1.00000
       816  1.41750  1.41363  1.00000
       817  1.41568  1.41267  1.00000
       818  1.41766  1.41184  1.00000
       819  1.41740  1.41123  1.00000
       820  1.41371  1.41057  1.00000
       821  1.41208  1.40964  1.00000
       822  1.41268  1.40890  1.00000
       823  1.41277  1.40825  1.00000
       824  1.41065  1.40743  1.00000
       825  1.41076  1.40653  1.00000
       826  1.41111  1.40599  1.00000
       827  1.40868  1.40569  1.00000
       828  1.40867  1.40472  1.00000
       829  1.40937  1.40361  1.00000
       830  1.40716  1.40270  1.00000
       831  1.40334  1.40165  1.00000
       832  1.40150  1.40051  1.00000
       833  1.40271  1.39921  1.00000
       834  1.40353  1.39768  1.00000
       835  1.40204  1.39638  1.00000
       836  1.39934  1.39531  1.00000
       837  1.39826  1.39412  1.00000
       838  1.39743  1.39264  1.00000
       839  1.39697  1.39123  1.00000
       840  1.39780  1.39012  1.00000
       841  1.39599  1.38866  1.00000
       842  1.39148  1.38730  1.00000
       843  1.38727  1.38638  1.00000
       844  1.38483  1.38525  1.00000
       845  1.38374  1.38404  1.00000
       846  1.38364  1.38305  1.00000
       847  1.38561  1.38228  1.00000
       848  1.38676  1.38152  1.00000
       849  1.38506  1.38060  1.00000
       850  1.38294  1.37953  1.00000
       851  1.38336  1.37846  1.00000
       852  1.38485  1.37744  1.00000
       853  1.38246  1.37642  1.00000
       854  1.38006  1.37538  1.00000
       855  1.37890  1.37423  1.00000
       856  1.37671  1.37293  1.00000
       857  1.37576  1.37170  1.00000
       858  1.37434  1.37059  1.00000
       859  1.37042  1.36949  1.00000
       860  1.37010  1.36830  1.00000
       861  1.36931  1.36701  1.00000
       862  1.36443  1.36569  1.00000
       863  1.36516  1.36443  1.00000
       864  1.36740  1.36340  1.00000
       865  1.36576  1.36234  1.00000
       866  1.36389  1.36084  1.00000
       867  1.36223  1.35949  1.00000
       868  1.36087  1.35860  1.00000
       869  1.36097  1.35796  1.00000
       870  1.36164  1.35704  1.00000
       871  1.36170  1.35593  1.00000
       872  1.36016  1.35503  1.00000
       873  1.35606  1.35449  1.00000
       874  1.35308  1.35369  1.00000
       875  1.35445  1.35249  1.00000
       876  1.35350  1.35183  1.00000
       877  1.35167  1.35090  1.00000
       878  1.35228  1.34953  1.00000
       879  1.35106  1.34890  1.00000
       880  1.34863  1.34823  1.00000
       881  1.34756  1.34726  1.00000
       882  1.34869  1.34655  1.00000
       883  1.34986  1.34569  1.00000
       884  1.34914  1.34461  1.00000
       885  1.34696  1.34359  1.00000
       886  1.34656  1.34269  1.00000
       887  1.34668  1.34168  1.00000
       888  1.34360  1.34052  1.00000
       889  1.34187  1.33967  1.00000
       890  1.34238  1.33885  1.00000
       891  1.34233  1.33773  1.00000
       892  1.34040  1.33659  1.00000
       893  1.33951  1.33545  1.00000
       894  1.34079  1.33430  1.00000
       895  1.33866  1.33317  1.00000
       896  1.33661  1.33202  1.00000
       897  1.33714  1.33096  1.00000
       898  1.33553  1.33017  1.00000
       899  1.33274  1.32948  1.00000
       900  1.33048  1.32881  1.00000
       901  1.32923  1.32821  1.00000
       902  1.33092  1.32762  1.00000
       903  1.33234  1.32683  1.00000
       904  1.32907  1.32576  1.00000
       905  1.32803  1.32476  1.00000
       906  1.32868  1.32404  1.00000
       907  1.32698  1.32344  1.00000
       908  1.32632  1.32257  1.00000
       909  1.32588  1.32160  1.00000
       910  1.32451  1.32078  1.00000
       911  1.32478  1.32012  1.00000
       912  1.32425  1.31936  1.00000
       913  1.32138  1.31852  1.00000
       914  1.31906  1.31786  1.00000
       915  1.32014  1.31707  1.00000
       916  1.32088  1.31625  1.00000
       917  1.31544  1.31558  1.00000
       918  1.31487  1.31479  1.00000
       919  1.31896  1.31394  1.00000
       920  1.31879  1.31321  1.00000
       921  1.31621  1.31255  1.00000
       922  1.31532  1.31171  1.00000
       923  1.31665  1.31064  1.00000
       924  1.31401  1.30960  1.00000
       925  1.31054  1.30853  1.00000
       926  1.30981  1.30756  1.00000
       927  1.30877  1.30690  1.00000
       928  1.30815  1.30623  1.00000
       929  1.30869  1.30535  1.00000
       930  1.30905  1.30442  1.00000
       931  1.30733  1.30390  1.00000
       932  1.30502  1.30356  1.00000
       933  1.30515  1.30296  1.00000
       934  1.30537  1.30218  1.00000
       935  1.30448  1.30153  1.00000
       936  1.30292  1.30100  1.00000
       937  1.30129  1.30027  1.00000
       938  1.30057  1.29975  1.00000
       939  1.30073  1.29944  1.00000
       940  1.29997  1.29872  1.00000
       941  1.29895  1.29789  1.00000
       942  1.29876  1.29728  1.00000
       943  1.29923  1.29692  1.00000
       944  1.29834  1.29662  1.00000
       945  1.29679  1.29622  1.00000
       946  1.29707  1.29572  1.00000
       947  1.29641  1.29526  1.00000
       948  1.29473  1.29496  1.00000
       949  1.29405  1.29470  1.00000
       950  1.29386  1.29425  1.00000
       951  1.29512  1.29397  1.00000
       952  1.29727  1.29388  1.00000
       953  1.29536  1.29351  1.00000
       954  1.29224  1.29324  1.00000
       955  1.29209  1.29316  1.00000
       956  1.29476  1.29293  1.00000
       957  1.29601  1.29263  1.00000
       958  1.29352  1.29241  1.00000
       959  1.28961  1.29221  1.00000
       960  1.29023  1.29159  1.00000
       961  1.29219  1.29088  1.00000
       962  1.28924  1.29042  1.00000
       963  1.28964  1.28984  1.00000
       964  1.29092  1.28917  1.00000
       965  1.28772  1.28851  1.00000
       966  1.28597  1.28777  1.00000
       967  1.28566  1.28696  1.00000
       968  1.28556  1.28596  1.00000
       969  1.28716  1.28476  1.00000
       970  1.28698  1.28401  1.00000
       971  1.28433  1.28349  1.00000
       972  1.28323  1.28261  1.00000
       973  1.28424  1.28179  1.00000
       974  1.28425  1.28123  1.00000
       975  1.28079  1.28090  1.00000
       976  1.27980  1.28081  1.00000
       977  1.28111  1.28078  1.00000
       978  1.28145  1.28077  1.00000
       979  1.28201  1.28095  1.00000
       980  1.28270  1.28129  1.00000
       981  1.28182  1.28138  1.00000
       982  1.27803  1.28082  1.00000
       983  1.27801  1.28043  1.00000
       984  1.28221  1.28027  1.00000
       985  1.28250  1.27974  1.00000
       986  1.28133  1.27876  1.00000
       987  1.28013  1.27765  1.00000
       988  1.27796  1.27673  1.00000
       989  1.27760  1.27607  1.00000
       990  1.27832  1.27562  1.00000
       991  1.27751  1.27522  1.00000
       992  1.27519  1.27482  1.00000
       993  1.27427  1.27463  1.00000
       994  1.27523  1.27448  1.00000
       995  1.27388  1.27403  1.00000
       996  1.27462  1.27380  1.00000
       997  1.27736  1.27381  1.00000
       998  1.27519  1.27363  1.00000
       999  1.27235  1.27339  1.00000
      1000  1.27224  1.27318  1.00000
      1001  1.27412  1.27303  1.00000
      1002  1.27561  1.27300  1.00000
      1003  1.27616  1.27293  1.00000
      1004  1.27578  1.27266  1.00000
      1005  1.27295  1.27227  1.00000
      1006  1.27016  1.27211  1.00000
      1007  1.27023  1.27203  1.00000
      1008  1.27258  1.27156  1.00000
      1009  1.27305  1.27119  1.00000
      1010  1.27173  1.27103  1.00000
      1011  1.27285  1.27088  1.00000
      1012  1.27135  1.27076  1.00000
      1013  1.26876  1.27059  1.00000
      1014  1.27027  1.27030  1.00000
      1015  1.26935  1.27005  1.00000
      1016  1.26816  1.26982  1.00000
      1017  1.27080  1.26953  1.00000
      1018  1.27139  1.26908  1.00000
      1019  1.27092  1.26861  1.00000
      1020  1.27074  1.26830  1.00000
      1021  1.26822  1.26816  1.00000
      1022  1.26841  1.26776  1.00000
      1023  1.27106  1.26731  1.00000
      1024  1.26978  1.26721  1.00000
      1025  1.26934  1.26701  1.00000
      1026  1.26961  1.26686  1.00000
      1027  1.26785  1.26691  1.00000
      1028  1.27073  1.26669  1.00000
      1029  1.27270  1.26647  1.00000
      1030  1.26850  1.26639  1.00000
      1031  1.26808  1.26605  1.00000
      1032  1.26763  1.26568  1.00000
      1033  1.26461  1.26548  1.00000
      1034  1.26595  1.26537  1.00000
      1035  1.26716  1.26502  1.00000
      1036  1.26613  1.26468  1.00000
      1037  1.26639  1.26461  1.00000
      1038  1.26818  1.26431  1.00000
      1039  1.26927  1.26397  1.00000
      1040  1.26810  1.26378  1.00000
      1041  1.26779  1.26340  1.00000
      1042  1.26967  1.26305  1.00000
      1043  1.27174  1.26285  1.00000
      1044  1.26967  1.26265  1.00000
      1045  1.26580  1.26241  1.00000
      1046  1.26417  1.26220  1.00000
      1047  1.26585  1.26212  1.00000
      1048  1.26511  1.26208  1.00000
      1049  1.26271  1.26200  1.00000
      1050  1.26429  1.26184  1.00000
      1051  1.26601  1.26166  1.00000
      1052  1.26599  1.26144  1.00000
      1053  1.26448  1.26127  1.00000
      1054  1.26106  1.26132  1.00000
      1055  1.26121  1.26124  1.00000
      1056  1.26515  1.26097  1.00000
      1057  1.26307  1.26080  1.00000
      1058  1.26198  1.26050  1.00000
      1059  1.26502  1.26017  1.00000
      1060  1.26522  1.26008  1.00000
      1061  1.26269  1.26017  1.00000
      1062  1.26108  1.26011  1.00000
      1063  1.26284  1.25980  1.00000
      1064  1.26362  1.25967  1.00000
      1065  1.26316  1.25972  1.00000
      1066  1.26294  1.25971  1.00000
      1067  1.26217  1.25950  1.00000
      1068  1.26371  1.25930  1.00000
      1069  1.26643  1.25904  1.00000
      1070  1.26374  1.25857  1.00000
      1071  1.26074  1.25859  1.00000
      1072  1.26031  1.25878  1.00000
      1073  1.26014  1.25861  1.00000
      1074  1.25991  1.25864  1.00000
      1075  1.26026  1.25857  1.00000
      1076  1.26108  1.25823  1.00000
      1077  1.26040  1.25821  1.00000
      1078  1.26167  1.25818  1.00000
      1079  1.26505  1.25802  1.00000
      1080  1.26291  1.25802  1.00000
      1081  1.26082  1.25794  1.00000
      1082  1.26188  1.25773  1.00000
      1083  1.26147  1.25750  1.00000
      1084  1.25970  1.25721  1.00000
      1085  1.25779  1.25692  1.00000
      1086  1.25691  1.25667  1.00000
      1087  1.25812  1.25639  1.00000
      1088  1.25956  1.25620  1.00000
      1089  1.26006  1.25607  1.00000
      1090  1.26208  1.25574  1.00000
      1091  1.26069  1.25550  1.00000
      1092  1.25572  1.25537  1.00000
      1093  1.25547  1.25510  1.00000
      1094  1.25661  1.25487  1.00000
      1095  1.25625  1.25474  1.00000
      1096  1.25553  1.25462  1.00000
      1097  1.25558  1.25439  1.00000
      1098  1.25602  1.25424  1.00000
      1099  1.25616  1.25422  1.00000
      1100  1.25663  1.25400  1.00000
      1101  1.25652  1.25385  1.00000
      1102  1.25572  1.25382  1.00000
      1103  1.25609  1.25366  1.00000
      1104  1.25654  1.25334  1.00000
      1105  1.25651  1.25311  1.00000
      1106  1.25660  1.25310  1.00000
      1107  1.25559  1.25300  1.00000
      1108  1.25467  1.25290  1.00000
      1109  1.25550  1.25286  1.00000
      1110  1.25555  1.25262  1.00000
      1111  1.25406  1.25255  1.00000
      1112  1.25273  1.25264  1.00000
      1113  1.25420  1.25240  1.00000
      1114  1.25485  1.25225  1.00000
      1115  1.25353  1.25228  1.00000
      1116  1.25353  1.25224  1.00000
      1117  1.25209  1.25209  1.00000
      1118  1.25063  1.25195  1.00000
      1119  1.25256  1.25193  1.00000
      1120  1.25312  1.25188  1.00000
      1121  1.25135  1.25180  1.00000
      1122  1.25002  1.25169  1.00000
      1123  1.25192  1.25155  1.00000
      1124  1.25339  1.25152  1.00000
      1125  1.25265  1.25151  1.00000
      1126  1.25307  1.25134  1.00000
      1127  1.25293  1.25120  1.00000
      1128  1.25165  1.25112  1.00000
      1129  1.25082  1.25104  1.00000
      1130  1.25051  1.25094  1.00000
      1131  1.25101  1.25074  1.00000
      1132  1.25203  1.25053  1.00000
      1133  1.25155  1.25062  1.00000
      1134  1.25064  1.25067  1.00000
      1135  1.25018  1.25040  1.00000
      1136  1.24908  1.24993  1.00000
      1137  1.24894  1.24988  1.00000
      1138  1.25020  1.24998  1.00000
      1139  1.25138  1.24973  1.00000
      1140  1.25165  1.24961  1.00000
      1141  1.25115  1.24956  1.00000
      1142  1.25060  1.24936  1.00000
      1143  1.25052  1.24914  1.00000
      1144  1.25058  1.24910  1.00000
      1145  1.25041  1.24910  1.00000
      1146  1.25036  1.24880  1.00000
      1147  1.25098  1.24855  1.00000
      1148  1.25081  1.24847  1.00000
      1149  1.24820  1.24844  1.00000
      1150  1.24836  1.24853  1.00000
      1151  1.25008  1.24858  1.00000
      1152  1.24960  1.24844  1.00000
      1153  1.25069  1.24824  1.00000
      1154  1.24994  1.24818  1.00000
      1155  1.24644  1.24821  1.00000
      1156  1.24823  1.24809  1.00000
      1157  1.24977  1.24807  1.00000
      1158  1.24798  1.24808  1.00000
      1159  1.24749  1.24797  1.00000
      1160  1.24877  1.24793  1.00000
      1161  1.24836  1.24781  1.00000
      1162  1.24478  1.24755  1.00000
      1163  1.24600  1.24745  1.00000
      1164  1.24900  1.24739  1.00000
      1165  1.24864  1.24731  1.00000
      1166  1.24774  1.24730  1.00000
      1167  1.24792  1.24714  1.00000
      1168  1.24856  1.24699  1.00000
      1169  1.24836  1.24712  1.00000
      1170  1.24999  1.24716  1.00000
      1171  1.25161  1.24696  1.00000
      1172  1.24974  1.24672  1.00000
      1173  1.24805  1.24674  1.00000
      1174  1.24723  1.24679  1.00000
      1175  1.24725  1.24683  1.00000
      1176  1.24984  1.24705  1.00000
      1177  1.25090  1.24704  1.00000
      1178  1.24753  1.24689  1.00000
      1179  1.24256  1.24699  1.00000
      1180  1.24404  1.24715  1.00000
      1181  1.24918  1.24722  1.00000
      1182  1.24956  1.24718  1.00000
      1183  1.24816  1.24699  1.00000
      1184  1.24735  1.24680  1.00000
      1185  1.24758  1.24672  1.00000
      1186  1.24807  1.24680  1.00000
      1187  1.24611  1.24684  1.00000
      1188  1.24455  1.24681  1.00000
      1189  1.24940  1.24679  1.00000
      1190  1.25041  1.24674  1.00000
      1191  1.24752  1.24655  1.00000
      1192  1.24867  1.24632  1.00000
      1193  1.25161  1.24651  1.00000
      1194  1.25116  1.24650  1.00000
      1195  1.24691  1.24626  1.00000
      1196  1.24626  1.24655  1.00000
      1197  1.24737  1.24661  1.00000
      1198  1.24795  1.24634  1.00000
      1199  1.24880  1.24622  1.00000
      1200  1.24776  1.24621  1.00000
      1201  1.24681  1.24626  1.00000
      1202  1.24843  1.24639  1.00000
      1203  1.24744  1.24662  1.00000
      1204  1.24707  1.24678  1.00000
      1205  1.24929  1.24685  1.00000
      1206  1.24708  1.24698  1.00000
      1207  1.24563  1.24707  1.00000
      1208  1.24743  1.24712  1.00000
      1209  1.24800  1.24716  1.00000
      1210  1.24893  1.24703  1.00000
      1211  1.24959  1.24687  1.00000
      1212  1.24832  1.24680  1.00000
      1213  1.24769  1.24667  1.00000
      1214  1.24746  1.24645  1.00000
      1215  1.24721  1.24611  1.00000
      1216  1.24825  1.24571  1.00000
      1217  1.24763  1.24554  1.00000
      1218  1.24604  1.24553  1.00000
      1219  1.24766  1.24548  1.00000
      1220  1.24914  1.24557  1.00000
      1221  1.24819  1.24563  1.00000
      1222  1.24600  1.24553  1.00000
      1223  1.24622  1.24560  1.00000
      1224  1.24667  1.24568  1.00000
      1225  1.24589  1.24563  1.00000
      1226  1.24708  1.24557  1.00000
      1227  1.24779  1.24568  1.00000
      1228  1.24725  1.24581  1.00000
      1229  1.24733  1.24580  1.00000
      1230  1.24611  1.24585  1.00000
      1231  1.24467  1.24589  1.00000
      1232  1.24489  1.24589  1.00000
      1233  1.24489  1.24597  1.00000
      1234  1.24505  1.24584  1.00000
      1235  1.24586  1.24560  1.00000
      1236  1.24610  1.24560  1.00000
      1237  1.24441  1.24558  1.00000
      1238  1.24302  1.24525  1.00000
      1239  1.24476  1.24467  1.00000
      1240  1.24445  1.24428  1.00000
      1241  1.24445  1.24408  1.00000
      1242  1.24716  1.24392  1.00000
      1243  1.24545  1.24376  1.00000
      1244  1.24473  1.24347  1.00000
      1245  1.24660  1.24321  1.00000
      1246  1.24341  1.24323  1.00000
      1247  1.24173  1.24321  1.00000
      1248  1.24302  1.24317  1.00000
      1249  1.24300  1.24324  1.00000
      1250  1.24335  1.24329  1.00000
      1251  1.24422  1.24338  1.00000
      1252  1.24442  1.24356  1.00000
      1253  1.24347  1.24367  1.00000
      1254  1.24307  1.24371  1.00000
      1255  1.24318  1.24375  1.00000
      1256  1.24218  1.24381  1.00000
      1257  1.24312  1.24374  1.00000
      1258  1.24468  1.24379  1.00000
      1259  1.24381  1.24405  1.00000
      1260  1.24363  1.24406  1.00000
      1261  1.24436  1.24396  1.00000
      1262  1.24409  1.24387  1.00000
      1263  1.24184  1.24364  1.00000
      1264  1.24229  1.24351  1.00000
      1265  1.24458  1.24349  1.00000
      1266  1.24292  1.24341  1.00000
      1267  1.24118  1.24327  1.00000
      1268  1.24216  1.24314  1.00000
      1269  1.24456  1.24312  1.00000
      1270  1.24398  1.24320  1.00000
      1271  1.24324  1.24323  1.00000
      1272  1.24364  1.24320  1.00000
      1273  1.24155  1.24319  1.00000
      1274  1.24220  1.24315  1.00000
      1275  1.24470  1.24315  1.00000
      1276  1.24352  1.24325  1.00000
      1277  1.24286  1.24325  1.00000
      1278  1.24373  1.24322  1.00000
      1279  1.24406  1.24321  1.00000
      1280  1.24232  1.24309  1.00000
      1281  1.24066  1.24302  1.00000
      1282  1.24074  1.24303  1.00000
      1283  1.24153  1.24303  1.00000
      1284  1.24102  1.24308  1.00000
      1285  1.24047  1.24309  1.00000
      1286  1.24187  1.24297  1.00000
      1287  1.24237  1.24282  1.00000
      1288  1.24254  1.24279  1.00000
      1289  1.24323  1.24280  1.00000
      1290  1.24286  1.24264  1.00000
      1291  1.24231  1.24260  1.00000
      1292  1.24192  1.24270  1.00000
      1293  1.24106  1.24268  1.00000
      1294  1.24062  1.24255  1.00000
      1295  1.24081  1.24240  1.00000
      1296  1.24098  1.24235  1.00000
      1297  1.24062  1.24237  1.00000
      1298  1.24121  1.24223  1.00000
      1299  1.24275  1.24210  1.00000
      1300  1.24288  1.24232  1.00000
      1301  1.24260  1.24233  1.00000
      1302  1.24239  1.24200  1.00000
      1303  1.24194  1.24171  1.00000
      1304  1.24206  1.24198  1.00000
      1305  1.24207  1.24212  1.00000
      1306  1.24137  1.24200  1.00000
      1307  1.24084  1.24235  1.00000
      1308  1.24036  1.24232  1.00000
      1309  1.24028  1.24204  1.00000
      1310  1.24123  1.24214  1.00000
      1311  1.24144  1.24207  1.00000
      1312  1.24093  1.24200  1.00000
      1313  1.24101  1.24214  1.00000
      1314  1.24194  1.24216  1.00000
      1315  1.24310  1.24200  1.00000
      1316  1.24342  1.24195  1.00000
      1317  1.24222  1.24226  1.00000
      1318  1.24128  1.24224  1.00000
      1319  1.24166  1.24215  1.00000
      1320  1.24264  1.24236  1.00000
      1321  1.24253  1.24222  1.00000
      1322  1.24192  1.24200  1.00000
      1323  1.24149  1.24202  1.00000
      1324  1.23998  1.24203  1.00000
      1325  1.23926  1.24183  1.00000
      1326  1.24031  1.24177  1.00000
      1327  1.24144  1.24211  1.00000
      1328  1.24033  1.24214  1.00000
      1329  1.23901  1.24213  1.00000
      1330  1.23994  1.24234  1.00000
      1331  1.23961  1.24219  1.00000
      1332  1.23928  1.24222  1.00000
      1333  1.24011  1.24246  1.00000
      1334  1.24009  1.24236  1.00000
      1335  1.24121  1.24229  1.00000
      1336  1.24296  1.24223  1.00000
      1337  1.24274  1.24203  1.00000
      1338  1.24165  1.24206  1.00000
      1339  1.24060  1.24213  1.00000
      1340  1.23981  1.24206  1.00000
      1341  1.23928  1.24197  1.00000
      1342  1.23996  1.24180  1.00000
      1343  1.24109  1.24156  1.00000
      1344  1.24080  1.24135  1.00000
      1345  1.24112  1.24123  1.00000
      1346  1.24138  1.24120  1.00000
      1347  1.24013  1.24119  1.00000
      1348  1.23976  1.24111  1.00000
      1349  1.24027  1.24092  1.00000
      1350  1.24073  1.24066  1.00000
      1351  1.24078  1.24048  1.00000
      1352  1.24028  1.24064  1.00000
      1353  1.24067  1.24089  1.00000
      1354  1.24289  1.24093  1.00000
      1355  1.24325  1.24096  1.00000
      1356  1.24076  1.24093  1.00000
      1357  1.23841  1.24093  1.00000
      1358  1.24060  1.24119  1.00000
      1359  1.24115  1.24105  1.00000
      1360  1.23851  1.24077  1.00000
      1361  1.23811  1.24100  1.00000
      1362  1.23892  1.24126  1.00000
      1363  1.24000  1.24126  1.00000
      1364  1.24095  1.24111  1.00000
      1365  1.24090  1.24116  1.00000
      1366  1.24146  1.24125  1.00000
      1367  1.24277  1.24128  1.00000
      1368  1.24259  1.24134  1.00000
      1369  1.24199  1.24133  1.00000
      1370  1.24134  1.24127  1.00000
      1371  1.24025  1.24127  1.00000
      1372  1.23956  1.24148  1.00000
      1373  1.24105  1.24156  1.00000
      1374  1.24278  1.24143  1.00000
      1375  1.23936  1.24132  1.00000
      1376  1.23779  1.24121  1.00000
      1377  1.23991  1.24125  1.00000
      1378  1.24060  1.24148  1.00000
      1379  1.23991  1.24156  1.00000
      1380  1.23994  1.24145  1.00000
      1381  1.24085  1.24135  1.00000
      1382  1.23942  1.24151  1.00000
      1383  1.23923  1.24169  1.00000
      1384  1.24054  1.24167  1.00000
      1385  1.23920  1.24152  1.00000
      1386  1.23868  1.24148  1.00000
      1387  1.23989  1.24127  1.00000
      1388  1.24085  1.24088  1.00000
      1389  1.24044  1.24096  1.00000
      1390  1.24068  1.24095  1.00000
      1391  1.24136  1.24070  1.00000
      1392  1.23920  1.24061  1.00000
      1393  1.23748  1.24052  1.00000
      1394  1.23850  1.24042  1.00000
      1395  1.24092  1.24037  1.00000
      1396  1.24069  1.24028  1.00000
      1397  1.23861  1.24030  1.00000
      1398  1.23742  1.24032  1.00000
      1399  1.23807  1.24008  1.00000
      1400  1.23913  1.24010  1.00000
      1401  1.24047  1.24032  1.00000
      1402  1.24233  1.24038  1.00000
      1403  1.24100  1.24043  1.00000
      1404  1.23880  1.24047  1.00000
      1405  1.23865  1.24048  1.00000
      1406  1.23824  1.24049  1.00000
      1407  1.23940  1.24036  1.00000
      1408  1.24132  1.24028  1.00000
      1409  1.24048  1.24042  1.00000
      1410  1.23991  1.24037  1.00000
      1411  1.24094  1.24027  1.00000
      1412  1.24173  1.24034  1.00000
      1413  1.23959  1.24045  1.00000
      1414  1.23981  1.24023  1.00000
      1415  1.24210  1.23981  1.00000
      1416  1.23899  1.23964  1.00000
      1417  1.23809  1.23962  1.00000
      1418  1.23950  1.23967  1.00000
      1419  1.23859  1.23980  1.00000
      1420  1.23921  1.23994  1.00000
      1421  1.24008  1.23995  1.00000
      1422  1.23867  1.23986  1.00000
      1423  1.23604  1.23991  1.00000
      1424  1.23767  1.24011  1.00000
      1425  1.24062  1.24027  1.00000
      1426  1.23863  1.24027  1.00000
      1427  1.23794  1.24037  1.00000
      1428  1.23863  1.24050  1.00000
      1429  1.23930  1.24061  1.00000
      1430  1.24172  1.24079  1.00000
      1431  1.24033  1.24070  1.00000
      1432  1.23602  1.24061  1.00000
      1433  1.23586  1.24089  1.00000
      1434  1.23925  1.24098  1.00000
      1435  1.24092  1.24105  1.00000
      1436  1.23861  1.24129  1.00000
      1437  1.23798  1.24147  1.00000
      1438  1.24028  1.24165  1.00000
      1439  1.24262  1.24178  1.00000
      1440  1.24172  1.24176  1.00000
      1441  1.24042  1.24164  1.00000
      1442  1.23977  1.24151  1.00000
      1443  1.23955  1.24142  1.00000
      1444  1.24069  1.24143  1.00000
      1445  1.24100  1.24148  1.00000
      1446  1.24048  1.24166  1.00000
      1447  1.24150  1.24198  1.00000
      1448  1.24060  1.24202  1.00000
      1449  1.23952  1.24190  1.00000
      1450  1.24114  1.24192  1.00000
      1451  1.24110  1.24208  1.00000
      1452  1.24056  1.24214  1.00000
      1453  1.24121  1.24209  1.00000
      1454  1.24181  1.24214  1.00000
      1455  1.24125  1.24221  1.00000
      1456  1.23999  1.24229  1.00000
      1457  1.23977  1.24234  1.00000
      1458  1.24188  1.24224  1.00000
      1459  1.24277  1.24238  1.00000
      1460  1.24106  1.24264  1.00000
      1461  1.24079  1.24251  1.00000
      1462  1.24194  1.24259  1.00000
      1463  1.24243  1.24282  1.00000
      1464  1.24114  1.24281  1.00000
      1465  1.24070  1.24274  1.00000
      1466  1.24047  1.24271  1.00000
      1467  1.23997  1.24279  1.00000
      1468  1.24134  1.24299  1.00000
      1469  1.24340  1.24293  1.00000
      1470  1.24355  1.24294  1.00000
      1471  1.24111  1.24333  1.00000
      1472  1.24101  1.24346  1.00000
      1473  1.24356  1.24360  1.00000
      1474  1.24588  1.24386  1.00000
      1475  1.24577  1.24382  1.00000
      1476  1.24493  1.24388  1.00000
      1477  1.24374  1.24408  1.00000
      1478  1.24180  1.24425  1.00000
      1479  1.24312  1.24444  1.00000
      1480  1.24401  1.24463  1.00000
      1481  1.24243  1.24478  1.00000
      1482  1.24526  1.24492  1.00000
      1483  1.24498  1.24503  1.00000
      1484  1.24040  1.24514  1.00000
      1485  1.23975  1.24540  1.00000
      1486  1.24252  1.24594  1.00000
      1487  1.24503  1.24622  1.00000
      1488  1.24484  1.24611  1.00000
      1489  1.24338  1.24622  1.00000
      1490  1.24267  1.24648  1.00000
      1491  1.24418  1.24668  1.00000
      1492  1.24727  1.24684  1.00000
      1493  1.24730  1.24718  1.00000
      1494  1.24526  1.24760  1.00000
      1495  1.24479  1.24782  1.00000
      1496  1.24600  1.24775  1.00000
      1497  1.24662  1.24811  1.00000
      1498  1.24617  1.24866  1.00000
      1499  1.24676  1.24866  1.00000
      1500  1.24903  1.24890  1.00000
      1501  1.25030  1.24927  1.00000
      1502  1.24880  1.24947  1.00000
      1503  1.24799  1.24978  1.00000
      1504  1.24807  1.25005  1.00000
      1505  1.24778  1.25022  1.00000
      1506  1.24676  1.25044  1.00000
      1507  1.24719  1.25079  1.00000
      1508  1.24864  1.25113  1.00000
      1509  1.24919  1.25145  1.00000
      1510  1.24881  1.25185  1.00000
      1511  1.24939  1.25200  1.00000
      1512  1.25017  1.25214  1.00000
      1513  1.24852  1.25276  1.00000
      1514  1.24932  1.25311  1.00000
      1515  1.25159  1.25328  1.00000
      1516  1.25181  1.25361  1.00000
      1517  1.25213  1.25391  1.00000
      1518  1.25135  1.25400  1.00000
      1519  1.25076  1.25406  1.00000
      1520  1.25405  1.25440  1.00000
      1521  1.25523  1.25482  1.00000
      1522  1.25455  1.25515  1.00000
      1523  1.25522  1.25540  1.00000
      1524  1.25433  1.25574  1.00000
      1525  1.25430  1.25608  1.00000
      1526  1.25577  1.25643  1.00000
      1527  1.25512  1.25693  1.00000
      1528  1.25374  1.25741  1.00000
      1529  1.25359  1.25797  1.00000
      1530  1.25495  1.25866  1.00000
      1531  1.25610  1.25923  1.00000
      1532  1.25707  1.25978  1.00000
      1533  1.25745  1.26036  1.00000
      1534  1.25651  1.26084  1.00000
      1535  1.25827  1.26110  1.00000
      1536  1.25945  1.26154  1.00000
      1537  1.25639  1.26235  1.00000
      1538  1.25682  1.26285  1.00000
      1539  1.26128  1.26307  1.00000
      1540  1.26404  1.26342  1.00000
      1541  1.26031  1.26418  1.00000
      1542  1.26026  1.26488  1.00000
      1543  1.26471  1.26549  1.00000
      1544  1.26672  1.26614  1.00000
      1545  1.26436  1.26671  1.00000
      1546  1.26434  1.26748  1.00000
      1547  1.26755  1.26838  1.00000
      1548  1.26658  1.26908  1.00000
      1549  1.26520  1.26967  1.00000
      1550  1.26573  1.27025  1.00000
      1551  1.26771  1.27092  1.00000
      1552  1.27077  1.27179  1.00000
      1553  1.27209  1.27270  1.00000
      1554  1.27189  1.27361  1.00000
      1555  1.27337  1.27459  1.00000
      1556  1.27330  1.27544  1.00000
      1557  1.27176  1.27634  1.00000
      1558  1.27117  1.27740  1.00000
      1559  1.27173  1.27830  1.00000
      1560  1.27290  1.27916  1.00000
      1561  1.27498  1.28013  1.00000
      1562  1.27817  1.28113  1.00000
      1563  1.27867  1.28194  1.00000
      1564  1.27837  1.28273  1.00000
      1565  1.27976  1.28364  1.00000
      1566  1.27875  1.28440  1.00000
      1567  1.27707  1.28494  1.00000
      1568  1.27800  1.28546  1.00000
      1569  1.28168  1.28619  1.00000
      1570  1.28247  1.28723  1.00000
      1571  1.28347  1.28839  1.00000
      1572  1.28811  1.28938  1.00000
      1573  1.28934  1.29014  1.00000
      1574  1.28716  1.29111  1.00000
      1575  1.28586  1.29240  1.00000
      1576  1.28878  1.29372  1.00000
      1577  1.29236  1.29489  1.00000
      1578  1.29393  1.29611  1.00000
      1579  1.29391  1.29752  1.00000
      1580  1.29538  1.29894  1.00000
      1581  1.29938  1.30034  1.00000
      1582  1.30252  1.30172  1.00000
      1583  1.30157  1.30303  1.00000
      1584  1.30409  1.30419  1.00000
      1585  1.30697  1.30567  1.00000
      1586  1.30625  1.30745  1.00000
      1587  1.30790  1.30878  1.00000
      1588  1.30972  1.31027  1.00000
      1589  1.31088  1.31203  1.00000
      1590  1.31300  1.31367  1.00000
      1591  1.31273  1.31524  1.00000
      1592  1.31187  1.31673  1.00000
      1593  1.31341  1.31820  1.00000
      1594  1.31643  1.31985  1.00000
      1595  1.31858  1.32162  1.00000
      1596  1.31950  1.32349  1.00000
      1597  1.32062  1.32541  1.00000
      1598  1.32223  1.32719  1.00000
      1599  1.32281  1.32907  1.00000
      1600  1.32273  1.33118  1.00000
      1601  1.32538  1.33332  1.00000
      1602  1.32978  1.33555  1.00000
      1603  1.33272  1.33766  1.00000
      1604  1.33276  1.33960  1.00000
      1605  1.33407  1.34193  1.00000
      1606  1.33607  1.34407  1.00000
      1607  1.33789  1.34573  1.00000
      1608  1.34070  1.34732  1.00000
      1609  1.34065  1.34896  1.00000
      1610  1.34111  1.35060  1.00000
      1611  1.34611  1.35226  1.00000
      1612  1.34759  1.35419  1.00000
      1613  1.34891  1.35607  1.00000
      1614  1.35280  1.35770  1.00000
      1615  1.35457  1.35933  1.00000
      1616  1.35359  1.36116  1.00000
      1617  1.35353  1.36276  1.00000
      1618  1.35655  1.36400  1.00000
      1619  1.35802  1.36565  1.00000
      1620  1.36059  1.36726  1.00000
      1621  1.36389  1.36878  1.00000
      1622  1.36324  1.37060  1.00000
      1623  1.36417  1.37219  1.00000
      1624  1.36740  1.37362  1.00000
      1625  1.36999  1.37506  1.00000
      1626  1.37152  1.37637  1.00000
      1627  1.37432  1.37773  1.00000
      1628  1.37719  1.37892  1.00000
      1629  1.37644  1.37958  1.00000
      1630  1.37476  1.38031  1.00000
      1631  1.37412  1.38125  1.00000
      1632  1.37474  1.38211  1.00000
      1633  1.37572  1.38260  1.00000
      1634  1.37450  1.38307  1.00000
      1635  1.37340  1.38360  1.00000
      1636  1.37636  1.38396  1.00000
      1637  1.37822  1.38411  1.00000
      1638  1.37828  1.38403  1.00000
      1639  1.37860  1.38384  1.00000
      1640  1.37992  1.38373  1.00000
      1641  1.38013  1.38354  1.00000
      1642  1.37919  1.38311  1.00000
      1643  1.37876  1.38254  1.00000
      1644  1.37857  1.38224  1.00000
      1645  1.37804  1.38198  1.00000
      1646  1.37790  1.38152  1.00000
      1647  1.37942  1.38096  1.00000
      1648  1.37892  1.38046  1.00000
      1649  1.37611  1.38003  1.00000
      1650  1.37404  1.37954  1.00000
      1651  1.37455  1.37888  1.00000
      1652  1.37372  1.37823  1.00000
      1653  1.37178  1.37756  1.00000
      1654  1.37349  1.37681  1.00000
      1655  1.37323  1.37638  1.00000
      1656  1.37213  1.37571  1.00000
      1657  1.37276  1.37458  1.00000
      1658  1.37052  1.37379  1.00000
      1659  1.36874  1.37294  1.00000
      1660  1.36851  1.37199  1.00000
      1661  1.36700  1.37129  1.00000
      1662  1.36627  1.37029  1.00000
      1663  1.36540  1.36907  1.00000
      1664  1.36335  1.36778  1.00000
      1665  1.36226  1.36635  1.00000
      1666  1.36214  1.36510  1.00000
      1667  1.36209  1.36381  1.00000
      1668  1.36104  1.36221  1.00000
      1669  1.35820  1.36083  1.00000
      1670  1.35641  1.35944  1.00000
      1671  1.35631  1.35781  1.00000
      1672  1.35426  1.35616  1.00000
      1673  1.35210  1.35478  1.00000
      1674  1.35125  1.35346  1.00000
      1675  1.35086  1.35191  1.00000
      1676  1.34900  1.35040  1.00000
      1677  1.34702  1.34914  1.00000
      1678  1.34599  1.34775  1.00000
      1679  1.34501  1.34582  1.00000
      1680  1.34331  1.34442  1.00000
      1681  1.34047  1.34313  1.00000
      1682  1.33742  1.34140  1.00000
      1683  1.33658  1.33987  1.00000
      1684  1.33560  1.33809  1.00000
      1685  1.33404  1.33617  1.00000
      1686  1.33401  1.33451  1.00000
      1687  1.33407  1.33246  1.00000
      1688  1.33078  1.33034  1.00000
      1689  1.32582  1.32835  1.00000
      1690  1.32691  1.32595  1.00000
      1691  1.32709  1.32368  1.00000
      1692  1.32358  1.32157  1.00000
      1693  1.32017  1.31937  1.00000
      1694  1.31768  1.31725  1.00000
      1695  1.31635  1.31514  1.00000
      1696  1.31523  1.31286  1.00000
      1697  1.31251  1.31046  1.00000
      1698  1.30887  1.30836  1.00000
      1699  1.30527  1.30643  1.00000
      1700  1.30277  1.30440  1.00000
      1701  1.30239  1.30239  1.00000
      1702  1.30030  1.30049  1.00000
      1703  1.29633  1.29868  1.00000
      1704  1.29464  1.29688  1.00000
      1705  1.29336  1.29507  1.00000
      1706  1.29236  1.29314  1.00000
      1707  1.29177  1.29105  1.00000
      1708  1.28967  1.28899  1.00000
      1709  1.28815  1.28699  1.00000
      1710  1.28629  1.28508  1.00000
      1711  1.28185  1.28328  1.00000
      1712  1.27934  1.28144  1.00000
      1713  1.27908  1.27963  1.00000
      1714  1.27783  1.27789  1.00000
      1715  1.27330  1.27617  1.00000
      1716  1.27159  1.27453  1.00000
      1717  1.27216  1.27287  1.00000
      1718  1.27087  1.27110  1.00000
      1719  1.26998  1.26937  1.00000
      1720  1.26844  1.26775  1.00000
      1721  1.26581  1.26620  1.00000
      1722  1.26379  1.26465  1.00000
      1723  1.26216  1.26315  1.00000
      1724  1.26101  1.26184  1.00000
      1725  1.26032  1.26056  1.00000
      1726  1.25909  1.25891  1.00000
      1727  1.25663  1.25765  1.00000
      1728  1.25491  1.25663  1.00000
      1729  1.25574  1.25525  1.00000
      1730  1.25481  1.25411  1.00000
      1731  1.25097  1.25307  1.00000
      1732  1.24834  1.25194  1.00000
      1733  1.25188  1.25092  1.00000
      1734  1.25312  1.24980  1.00000
      1735  1.25015  1.24867  1.00000
      1736  1.24743  1.24760  1.00000
      1737  1.24620  1.24634  1.00000
      1738  1.24511  1.24511  1.00000
      1739  1.24365  1.24404  1.00000
      1740  1.24268  1.24301  1.00000
      1741  1.24155  1.24205  1.00000
      1742  1.24049  1.24112  1.00000
      1743  1.24024  1.24017  1.00000
      1744  1.24052  1.23920  1.00000
      1745  1.23842  1.23822  1.00000
      1746  1.23572  1.23727  1.00000
      1747  1.23635  1.23644  1.00000
      1748  1.23726  1.23570  1.00000
      1749  1.23656  1.23483  1.00000
      1750  1.23434  1.23393  1.00000
      1751  1.23196  1.23338  1.00000
      1752  1.23118  1.23279  1.00000
      1753  1.23055  1.23212  1.00000
      1754  1.22926  1.23151  1.00000
      1755  1.23102  1.23092  1.00000
      1756  1.23053  1.23025  1.00000
      1757  1.22796  1.22956  1.00000
      1758  1.22913  1.22893  1.00000
      1759  1.22863  1.22819  1.00000
      1760  1.22683  1.22757  1.00000
      1761  1.22640  1.22705  1.00000
      1762  1.22619  1.22624  1.00000
      1763  1.22405  1.22553  1.00000
      1764  1.22199  1.22502  1.00000
      1765  1.22286  1.22443  1.00000
      1766  1.22328  1.22360  1.00000
      1767  1.22301  1.22278  1.00000
      1768  1.22143  1.22217  1.00000
      1769  1.21755  1.22171  1.00000
      1770  1.21733  1.22106  1.00000
      1771  1.21967  1.22033  1.00000
      1772  1.22079  1.21971  1.00000
      1773  1.22188  1.21911  1.00000
      1774  1.22207  1.21869  1.00000
      1775  1.22022  1.21832  1.00000
      1776  1.21741  1.21779  1.00000
      1777  1.21791  1.21750  1.00000
      1778  1.21842  1.21716  1.00000
      1779  1.21681  1.21669  1.00000
      1780  1.21652  1.21649  1.00000
      1781  1.21514  1.21614  1.00000
      1782  1.21395  1.21566  1.00000
      1783  1.21496  1.21535  1.00000
      1784  1.21471  1.21517  1.00000
      1785  1.21457  1.21485  1.00000
      1786  1.21539  1.21441  1.00000
      1787  1.21532  1.21406  1.00000
      1788  1.21313  1.21357  1.00000
      1789  1.21178  1.21319  1.00000
      1790  1.21290  1.21301  1.00000
      1791  1.21331  1.21264  1.00000
      1792  1.21298  1.21220  1.00000
      1793  1.21293  1.21183  1.00000
      1794  1.21317  1.21159  1.00000
      1795  1.21185  1.21137  1.00000
      1796  1.21044  1.21111  1.00000
      1797  1.21078  1.21078  1.00000
      1798  1.21236  1.21043  1.00000
      1799  1.21184  1.21024  1.00000
      1800  1.21039  1.21016  1.00000
